File: data/c15.csv
Time,Unsubtracted Weight,Baseline Weight,Program Temperature,Sample Temperature,Approx. Gas Flow,Unsubtracted Delta T,Baseline Delta T,Unsubtracted Heat Flow,Baseline Heat Flow,Heat Flow Calibration,Unsubstracted Microvolt,R25 Diagnostic Signal,
0.000000,10.0801,0.000000,25.0312,24.79,30,0.364385,0.000000,19.988,0.000000,1.000000,0.480639,14.622,
0.620833,10.0735,0.000000,34.3125,26.19,30,0.287927,0.000000,18.9265,0.000000,1.000000,0.381730,11.613,
1.241667,10.0696,0.000000,43.625,31.67,30,0.358236,0.000000,20.0182,0.000000,1.000000,0.484386,14.736,
1.862500,10.0303,0.000000,52.9375,40.27,30,0.542753,0.000000,22.8984,0.000000,1.000000,0.755473,22.983,
2.483333,9.944356,0.000000,62.25,49.86,30,0.708001,0.000000,25.6427,0.000000,1.000000,1.015285,30.887,
3.104167,9.842019,0.000000,71.5625,59.27,30,0.774970,0.000000,26.9564,0.000000,1.000000,1.141542,34.728,
3.725000,9.752556,0.000000,80.875,68.39,30,0.722467,0.000000,26.3829,0.000000,1.000000,1.090066,33.162,
4.345833,9.689496,0.000000,90.1875,77.32,30,0.616887,0.000000,24.8908,0.000000,1.000000,0.951318,28.941,
4.966667,9.647601,0.000000,99.5,86.16,30,0.524557,0.000000,23.5419,0.000000,1.000000,0.825455,25.112,
5.587500,9.617925,0.000000,108.812,95.03,30,0.458650,0.000000,22.5778,0.000000,1.000000,0.735586,22.378,
6.208333,9.596105,0.000000,118.125,104.03,30,0.411861,0.000000,21.9,0.000000,1.000000,0.672572,20.461,
6.829167,9.582358,0.000000,127.438,113.18,30,0.377503,0.000000,21.4093,0.000000,1.000000,0.627145,19.079,
7.450000,9.570794,0.000000,136.75,122.46,30,0.349258,0.000000,21.005,0.000000,1.000000,0.589771,17.942,
8.070833,9.562502,0.000000,146.062,131.85,30,0.328995,0.000000,20.7257,0.000000,1.000000,0.564197,17.164,
8.691667,9.555738,0.000000,155.375,141.28,30,0.321024,0.000000,20.6557,0.000000,1.000000,0.558576,16.993,
9.312500,9.549846,0.000000,164.688,150.71,30,0.321200,0.000000,20.7273,0.000000,1.000000,0.566531,17.235,
9.933333,9.545482,0.000000,174,160.11,30,0.325335,0.000000,20.8683,0.000000,1.000000,0.581158,17.68,
10.5542,9.540682,0.000000,183.312,169.48,30,0.330343,0.000000,21.0232,0.000000,1.000000,0.597134,18.166,
11.175,9.536536,0.000000,192.625,178.81,30,0.336648,0.000000,21.2006,0.000000,1.000000,0.615311,18.719,
11.7958,9.532390,0.000000,201.938,188.12,30,0.343614,0.000000,21.3894,0.000000,1.000000,0.634607,19.306,
12.4167,9.528026,0.000000,211.25,197.41,30,0.351236,0.000000,21.5898,0.000000,1.000000,0.655052,19.928,
13.0375,9.522134,0.000000,220.562,206.7,30,0.360854,0.000000,21.8281,0.000000,1.000000,0.679212,20.663,
13.6583,9.515370,0.000000,229.875,215.99,30,0.372345,0.000000,22.103,0.000000,1.000000,0.706955,21.507,
14.2792,9.505769,0.000000,239.188,225.28,30,0.386234,0.000000,22.4254,0.000000,1.000000,0.739366,22.493,
14.9,9.493768,0.000000,248.5,234.58,30,0.398636,0.000000,22.7194,0.000000,1.000000,0.769049,23.396,
15.5208,9.481331,0.000000,257.812,243.88,30,0.405906,0.000000,22.9117,0.000000,1.000000,0.788837,23.998,
16.1417,9.466275,0.000000,267.125,253.2,30,0.411847,0.000000,23.0768,0.000000,1.000000,0.805963,24.519,
16.7625,9.447946,0.000000,276.438,262.5,30,0.418640,0.000000,23.258,0.000000,1.000000,0.824666,25.088,
17.3833,9.422634,0.000000,285.75,271.8,30,0.426847,0.000000,23.4672,0.000000,1.000000,0.846098,25.74,
18.0042,9.385103,0.000000,295.062,281.1,30,0.437874,0.000000,23.7333,0.000000,1.000000,0.873118,26.562,
18.625,9.330553,0.000000,304.375,290.4,30,0.453903,0.000000,24.1018,0.000000,1.000000,0.910197,27.69,
19.2458,9.244581,0.000000,313.688,299.68,30,0.478196,0.000000,24.6409,0.000000,1.000000,0.964072,29.329,
19.8667,9.094021,0.000000,323,308.92,30,0.533087,0.000000,25.8125,0.000000,1.000000,1.080238,32.863,
20.4875,8.782646,0.000000,332.312,318.08,30,0.670867,0.000000,28.705,0.000000,1.000000,1.366051,41.558,
21.1083,8.127385,0.000000,341.625,327.05,30,0.959727,0.000000,34.7527,0.000000,1.000000,1.963250,59.726,
21.7292,6.900214,0.000000,350.938,335.89,30,1.371960,0.000000,43.4124,0.000000,1.000000,2.818848,85.755,
22.35,5.013418,0.000000,360.25,344.85,30,1.704713,0.000000,50.4713,0.000000,1.000000,3.517422,107.007,
22.9708,2.964061,0.000000,369.562,354.35,30,1.591819,0.000000,48.232,0.000000,1.000000,3.298402,100.344,
23.5917,1.747147,0.000000,378.875,364.51,30,0.932078,0.000000,34.4628,0.000000,1.000000,1.939550,59.005,
24.2125,1.469375,0.000000,388.188,374.48,30,0.394883,0.000000,23.1813,0.000000,1.000000,0.825028,25.099,
24.8333,1.384931,0.000000,397.5,383.84,30,0.289207,0.000000,20.9687,0.000000,1.000000,0.606502,18.451,
25.4542,1.326234,0.000000,406.812,393.02,30,0.282551,0.000000,20.847,0.000000,1.000000,0.594668,18.091,
26.075,1.279321,0.000000,416.125,402.22,30,0.297583,0.000000,21.187,0.000000,1.000000,0.628493,19.12,
26.6958,1.240044,0.000000,425.438,411.46,30,0.316686,0.000000,21.6162,0.000000,1.000000,0.671126,20.417,
27.3167,1.205568,0.000000,434.75,420.73,30,0.339790,0.000000,22.1339,0.000000,1.000000,0.722503,21.98,
27.9375,1.177420,0.000000,444.062,430.02,30,0.366536,0.000000,22.7332,0.000000,1.000000,0.781934,23.788,
28.5583,1.151672,0.000000,453.375,439.32,30,0.394603,0.000000,23.3649,0.000000,1.000000,0.844520,25.692,
29.1792,1.127670,0.000000,462.688,448.61,30,0.423231,0.000000,24.0126,0.000000,1.000000,0.908652,27.643,
29.8,1.106286,0.000000,472,457.9,30,0.452324,0.000000,24.6745,0.000000,1.000000,0.974131,29.635,
30.4208,1.086648,0.000000,481.312,467.18,30,0.483080,0.000000,25.3771,0.000000,1.000000,1.043554,31.747,
31.0417,1.067883,0.000000,490.625,476.46,30,0.516623,0.000000,26.1454,0.000000,1.000000,1.119387,34.054,
31.6625,1.050426,0.000000,499.938,485.74,30,0.551795,0.000000,26.9545,0.000000,1.000000,1.199165,36.481,
32.2833,1.034934,0.000000,509.25,495,30,0.588955,0.000000,27.8131,0.000000,1.000000,1.283709,39.053,
32.9042,1.019442,0.000000,518.562,504.27,30,0.628357,0.000000,28.7274,0.000000,1.000000,1.373611,41.788,
33.525,1.005040,0.000000,527.875,513.53,30,0.669245,0.000000,29.6812,0.000000,1.000000,1.467261,44.637,
34.1458,0.990639,0.000000,537.188,522.8,30,0.711724,0.000000,30.6775,0.000000,1.000000,1.564920,47.608,
34.7667,0.976892,0.000000,546.5,532.06,30,0.755645,0.000000,31.7136,0.000000,1.000000,1.666294,50.692,
35.3875,0.963364,0.000000,555.812,541.32,30,0.801468,0.000000,32.8004,0.000000,1.000000,1.772434,53.921,
36.0083,0.949399,0.000000,565.125,550.58,30,0.846212,0.000000,33.8716,0.000000,1.000000,1.876767,57.095,
36.6292,0.936306,0.000000,574.438,559.84,30,0.892097,0.000000,34.9773,0.000000,1.000000,1.984222,60.364,
37.25,0.923869,0.000000,583.75,569.1,30,0.938658,0.000000,36.1076,0.000000,1.000000,2.093781,63.697,
37.8708,0.911213,0.000000,593.062,578.36,30,0.984382,0.000000,37.2286,0.000000,1.000000,2.202091,66.992,
38.4917,0.898994,0.000000,602.375,587.62,30,1.028560,0.000000,38.3242,0.000000,1.000000,2.307541,70.2,
39.1125,0.886338,0.000000,611.688,596.89,30,1.069299,0.000000,39.351,0.000000,1.000000,2.405858,73.191,
39.7333,0.873901,0.000000,621,606.16,30,1.105954,0.000000,40.2935,0.000000,1.000000,2.495530,75.919,
40.3542,0.862772,0.000000,630.312,615.44,30,1.137937,0.000000,41.1374,0.000000,1.000000,2.575143,78.341,
40.975,0.850117,0.000000,639.625,624.72,30,1.166532,0.000000,41.9112,0.000000,1.000000,2.647525,80.543,
41.5958,0.840297,0.000000,648.938,634.01,30,1.192768,0.000000,42.6385,0.000000,1.000000,2.714976,82.595,
42.2167,0.828296,0.000000,658.25,643.3,30,1.216888,0.000000,43.3243,0.000000,1.000000,2.777990,84.512,
42.8375,0.817823,0.000000,667.562,652.59,30,1.237319,0.000000,43.9311,0.000000,1.000000,2.832917,86.183,
43.4583,0.808003,0.000000,676.875,661.91,30,1.206658,0.000000,43.3387,0.000000,1.000000,2.770857,84.295,
44.0792,0.798621,0.000000,686.188,671.24,30,1.191252,0.000000,43.1048,0.000000,1.000000,2.743574,83.465,
44.7,0.789020,0.000000,695.5,680.54,30,1.200456,0.000000,43.4569,0.000000,1.000000,2.772960,84.359,
45.3208,0.779637,0.000000,704.812,689.82,30,1.216828,0.000000,43.9856,0.000000,1.000000,2.819111,85.763,
45.9417,0.771564,0.000000,714.125,699.1,30,1.235375,0.000000,44.5736,0.000000,1.000000,2.870587,87.329,
46.5625,0.763927,0.000000,723.438,708.38,30,1.256406,0.000000,45.2292,0.000000,1.000000,2.928144,89.08,
47.1833,0.755635,0.000000,732.75,717.66,30,1.279599,0.000000,45.9457,0.000000,1.000000,2.991092,90.995,
47.8042,0.747780,0.000000,742.062,726.93,30,1.303617,0.000000,46.6915,0.000000,1.000000,3.056341,92.98,
48.425,0.740361,0.000000,751.375,736.21,30,1.328166,0.000000,47.4598,0.000000,1.000000,3.123200,95.014,
49.0458,0.732724,0.000000,760.688,745.48,30,1.354390,0.000000,48.2795,0.000000,1.000000,3.194399,97.18,
49.6667,0.725523,0.000000,770,754.76,30,1.380946,0.000000,49.118,0.000000,1.000000,3.266781,99.382,
50.2875,0.718322,0.000000,779.312,764.04,30,1.409410,0.000000,50.0151,0.000000,1.000000,3.344093,101.734,
50.9083,0.711122,0.000000,788.625,773.31,30,1.436385,0.000000,50.8865,0.000000,1.000000,3.418283,103.991,
51.5292,0.704357,0.000000,797.938,782.59,30,1.462373,0.000000,51.7448,0.000000,1.000000,3.490533,106.189,
52.15,0.698248,0.000000,807.25,791.87,30,1.488724,0.000000,52.6239,0.000000,1.000000,3.564033,108.425,
52.7708,0.691265,0.000000,816.562,801.15,30,1.513326,0.000000,53.4704,0.000000,1.000000,3.633719,110.545,
53.3917,0.684501,0.000000,825.875,810.43,30,1.537591,0.000000,54.3199,0.000000,1.000000,3.702945,112.651,
54.0125,0.677518,0.000000,835.188,819.72,30,1.560366,0.000000,55.143,0.000000,1.000000,3.768917,114.658,
54.6333,0.669663,0.000000,844.5,829,30,1.582985,0.000000,55.9736,0.000000,1.000000,3.834823,116.663,
55.2542,0.661808,0.000000,853.812,838.28,30,1.606007,0.000000,56.8267,0.000000,1.000000,3.902012,118.707,
55.875,0.654825,0.000000,863.125,847.56,30,1.628092,0.000000,57.6675,0.000000,1.000000,3.967228,120.691,
56.4958,0.645006,0.000000,872.438,856.84,30,1.649530,0.000000,58.5033,0.000000,1.000000,4.031129,122.635,
57.1167,0.636278,0.000000,881.75,866.11,30,1.672214,0.000000,59.3845,0.000000,1.000000,4.098350,124.68,
57.7375,0.627114,0.000000,891.062,875.39,30,1.694614,0.000000,60.2713,0.000000,1.000000,4.165144,126.712,
58.3583,0.617076,0.000000,900,884.66,29.5,1.718213,0.000000,61.2035,0.000000,1.000000,4.235159,128.842,
58.9792,0.620131,0.000000,900,891.81,10.2,1.890707,0.000000,66.117,0.000000,1.000000,4.670502,142.086,
59.3375,0.612276,0.000000,900,894.14,10.2,1.925330,0.000000,67.1426,0.000000,1.000000,4.759385,144.79,