File: data/c20.csv
Time,Unsubtracted Weight,Baseline Weight,Program Temperature,Sample Temperature,Approx. Gas Flow,Unsubtracted Delta T,Baseline Delta T,Unsubtracted Heat Flow,Baseline Heat Flow,Heat Flow Calibration,Unsubstracted Microvolt,R25 Diagnostic Signal,
0.000000,10.7183,0.000000,25.0417,24.89,30,-0.026374,0.000000,20,0.000000,1.000000,-0.034777,-1.058000,
0.483333,10.7111,0.000000,34.6667,25.83,30,-0.060363,0.000000,19.517,0.000000,1.000000,-0.079876,-2.430000,
0.966667,10.7142,0.000000,44.3333,30.7,30,-0.245529,0.000000,16.8363,0.000000,1.000000,-0.330550,-10.056,
1.450000,10.691,0.000000,54,38.86,30,-0.475553,0.000000,13.3499,0.000000,1.000000,-0.657912,-20.015,
1.933333,10.6319,0.000000,63.6667,48.85,30,-0.578275,0.000000,11.587,0.000000,1.000000,-0.825291,-25.107,
2.416667,10.5475,0.000000,73.3333,59.07,30,-0.619626,0.000000,10.705,0.000000,1.000000,-0.910591,-27.702,
2.900000,10.46,0.000000,83,68.98,30,-0.626798,0.000000,10.3585,0.000000,1.000000,-0.945631,-28.768,
3.383333,10.3915,0.000000,92.6667,78.48,30,-0.559076,0.000000,11.2507,0.000000,1.000000,-0.863421,-26.267,
3.866667,10.3408,0.000000,102.333,87.65,30,-0.467939,0.000000,12.5926,0.000000,1.000000,-0.738051,-22.453,
4.350000,10.3057,0.000000,112,96.64,30,-0.387395,0.000000,13.8208,0.000000,1.000000,-0.622872,-18.949,
4.833333,10.2832,0.000000,121.667,105.58,30,-0.329541,0.000000,14.7104,0.000000,1.000000,-0.539412,-16.41,
5.316667,10.2695,0.000000,131.333,114.61,30,-0.293857,0.000000,15.2481,0.000000,1.000000,-0.489185,-14.882,
5.800000,10.2616,0.000000,141,123.78,30,-0.277388,0.000000,15.467,0.000000,1.000000,-0.469233,-14.275,
6.283333,10.2557,0.000000,150.667,133.13,30,-0.273166,0.000000,15.4771,0.000000,1.000000,-0.469200,-14.274,
6.766667,10.2518,0.000000,160.333,142.63,30,-0.279088,0.000000,15.3077,0.000000,1.000000,-0.486391,-14.797,
7.250000,10.2487,0.000000,170,152.27,30,-0.288106,0.000000,15.0817,0.000000,1.000000,-0.509072,-15.487,
7.733333,10.2461,0.000000,179.667,162.01,30,-0.296301,0.000000,14.8704,0.000000,1.000000,-0.530406,-16.136,
8.216667,10.2422,0.000000,189.333,171.8,30,-0.301046,0.000000,14.724,0.000000,1.000000,-0.545526,-16.596,
8.700000,10.2389,0.000000,199,181.58,30,-0.303091,0.000000,14.6303,0.000000,1.000000,-0.555552,-16.901,
9.183333,10.235,0.000000,208.667,191.35,30,-0.302468,0.000000,14.5902,0.000000,1.000000,-0.560384,-17.048,
9.666667,10.2313,0.000000,218.333,201.09,30,-0.299623,0.000000,14.5963,0.000000,1.000000,-0.560713,-17.058,
10.15,10.2258,0.000000,228,210.8,30,-0.296244,0.000000,14.6165,0.000000,1.000000,-0.559628,-17.025,
10.6333,10.2184,0.000000,237.667,220.49,30,-0.294728,0.000000,14.6039,0.000000,1.000000,-0.561699,-17.088,
11.1167,10.2093,0.000000,247.333,230.16,30,-0.296636,0.000000,14.5266,0.000000,1.000000,-0.570048,-17.342,
11.6,10.1973,0.000000,257,239.81,30,-0.297941,0.000000,14.4629,0.000000,1.000000,-0.577050,-17.555,
12.0833,10.1829,0.000000,266.667,249.46,30,-0.294893,0.000000,14.4877,0.000000,1.000000,-0.575373,-17.504,
12.5667,10.168,0.000000,276.333,259.11,30,-0.289413,0.000000,14.5639,0.000000,1.000000,-0.568635,-17.299,
13.05,10.1475,0.000000,286,268.75,30,-0.284583,0.000000,14.6298,0.000000,1.000000,-0.562849,-17.123,
13.5333,10.1191,0.000000,295.667,278.4,30,-0.281998,0.000000,14.6527,0.000000,1.000000,-0.561239,-17.074,
14.0167,10.0748,0.000000,305.333,288.06,30,-0.285287,0.000000,14.5577,0.000000,1.000000,-0.571166,-17.376,
14.5,10.0072,0.000000,315,297.72,30,-0.296577,0.000000,14.2993,0.000000,1.000000,-0.597134,-18.166,
14.9833,9.898315,0.000000,324.667,307.39,30,-0.324409,0.000000,13.6998,0.000000,1.000000,-0.656696,-19.978,
15.4667,9.701060,0.000000,334.333,317.08,30,-0.403382,0.000000,12.04,0.000000,1.000000,-0.820755,-24.969,
15.95,9.273384,0.000000,344,326.84,30,-0.632998,0.000000,7.243448,0.000000,1.000000,-1.294261,-39.374,
16.4333,8.397083,0.000000,353.667,336.72,30,-1.073415,0.000000,-1.979135,0.000000,1.000000,-2.205082,-67.083,
16.9167,6.851337,0.000000,363.333,346.78,30,-1.641607,0.000000,-13.9424,0.000000,1.000000,-3.387680,-103.06,
17.4,4.661894,0.000000,373,356.95,30,-2.030411,0.000000,-22.2318,0.000000,1.000000,-4.208731,-128.038,
17.8833,2.632394,0.000000,382.667,366.96,30,-1.723801,0.000000,-15.9358,0.000000,1.000000,-3.588784,-109.178,
18.3667,1.730345,0.000000,392.333,376.48,30,-0.855232,0.000000,2.293066,0.000000,1.000000,-1.787851,-54.39,
18.85,1.555347,0.000000,402,385.63,30,-0.325284,0.000000,13.4729,0.000000,1.000000,-0.682565,-20.765,
19.3333,1.485958,0.000000,411.667,394.81,30,-0.203915,0.000000,16.0332,0.000000,1.000000,-0.429426,-13.064,
19.8167,1.429007,0.000000,421.333,404.12,30,-0.185498,0.000000,16.4124,0.000000,1.000000,-0.392019,-11.926,
20.3,1.380348,0.000000,431,413.56,30,-0.186623,0.000000,16.3754,0.000000,1.000000,-0.395766,-12.04,
20.7833,1.339763,0.000000,440.667,423.1,30,-0.194018,0.000000,16.2034,0.000000,1.000000,-0.412859,-12.56,
21.2667,1.301359,0.000000,450.333,432.72,30,-0.203218,0.000000,15.9913,0.000000,1.000000,-0.433897,-13.2,
21.75,1.267320,0.000000,460,442.39,30,-0.214237,0.000000,15.7385,0.000000,1.000000,-0.458944,-13.962,
22.2333,1.235680,0.000000,469.667,452.09,30,-0.226064,0.000000,15.4665,0.000000,1.000000,-0.485865,-14.781,
22.7167,1.207532,0.000000,479.333,461.8,30,-0.237533,0.000000,15.2004,0.000000,1.000000,-0.512162,-15.581,
23.2,1.180039,0.000000,489,471.51,30,-0.249941,0.000000,14.9119,0.000000,1.000000,-0.540628,-16.447,
23.6833,1.155382,0.000000,498.667,481.21,30,-0.265127,0.000000,14.5605,0.000000,1.000000,-0.575274,-17.501,
24.1667,1.132907,0.000000,508.333,490.91,30,-0.283578,0.000000,14.1348,0.000000,1.000000,-0.617218,-18.777,
24.65,1.111959,0.000000,518,500.61,30,-0.306559,0.000000,13.606,0.000000,1.000000,-0.669285,-20.361,
25.1333,1.092976,0.000000,527.667,510.3,30,-0.331190,0.000000,13.0366,0.000000,1.000000,-0.725265,-22.064,
25.6167,1.075520,0.000000,537.333,519.99,30,-0.357815,0.000000,12.4187,0.000000,1.000000,-0.785944,-23.91,
26.1,1.059373,0.000000,547,529.68,30,-0.388370,0.000000,11.7082,0.000000,1.000000,-0.855631,-26.03,
26.5833,1.044753,0.000000,556.667,539.38,30,-0.420837,0.000000,10.9493,0.000000,1.000000,-0.929952,-28.291,
27.0667,1.030788,0.000000,566.333,549.07,30,-0.451139,0.000000,10.2329,0.000000,1.000000,-0.999901,-30.419,
27.55,1.017914,0.000000,576,558.76,30,-0.485946,0.000000,9.408938,0.000000,1.000000,-1.080271,-32.864,
28.0333,1.005258,0.000000,585.667,568.45,30,-0.525464,0.000000,8.471232,0.000000,1.000000,-1.171619,-35.643,
28.5167,0.993476,0.000000,595.333,578.15,30,-0.571458,0.000000,7.378151,0.000000,1.000000,-1.277990,-38.879,
29,0.982129,0.000000,605,587.85,30,-0.624131,0.000000,6.122983,0.000000,1.000000,-1.399974,-42.59,
29.4833,0.971437,0.000000,614.667,597.56,30,-0.685420,0.000000,4.659024,0.000000,1.000000,-1.542075,-46.913,
29.9667,0.960745,0.000000,624.333,607.29,30,-0.755812,0.000000,2.972127,0.000000,1.000000,-1.705575,-51.887,
30.45,0.952453,0.000000,634,617.02,30,-0.833712,0.000000,1.096049,0.000000,1.000000,-1.887055,-57.408,
30.9333,0.942853,0.000000,643.667,626.77,30,-0.916656,0.000000,-0.914959,0.000000,1.000000,-2.081093,-63.311,
31.4167,0.934779,0.000000,653.333,636.52,30,-1.004202,0.000000,-3.052787,0.000000,1.000000,-2.286799,-69.569,
31.9,0.926269,0.000000,663,646.27,30,-1.095012,0.000000,-5.288145,0.000000,1.000000,-2.501216,-76.092,
32.3833,0.919287,0.000000,672.667,656.02,30,-1.188707,0.000000,-7.613912,0.000000,1.000000,-2.723555,-82.856,
32.8667,0.911650,0.000000,682.333,665.77,30,-1.282980,0.000000,-9.977292,0.000000,1.000000,-2.948590,-89.702,
33.35,0.906195,0.000000,692,675.52,30,-1.377568,0.000000,-12.373,0.000000,1.000000,-3.175728,-96.612,
33.8333,0.900085,0.000000,701.667,685.26,30,-1.470728,0.000000,-14.7602,0.000000,1.000000,-3.400960,-103.464,
34.3167,0.894193,0.000000,711.333,695,30,-1.562463,0.000000,-17.1396,0.000000,1.000000,-3.624285,-110.258,
34.8,0.889393,0.000000,721,704.74,30,-1.652322,0.000000,-19.5004,0.000000,1.000000,-3.844619,-116.961,
35.2833,0.884374,0.000000,730.667,714.48,30,-1.740190,0.000000,-21.8401,0.000000,1.000000,-4.061666,-123.564,
35.7667,0.879792,0.000000,740.333,724.22,30,-1.826769,0.000000,-24.176,0.000000,1.000000,-4.277036,-130.116,
36.25,0.874992,0.000000,750,733.96,30,-1.911571,0.000000,-26.4962,0.000000,1.000000,-4.489547,-136.581,
36.7333,0.870628,0.000000,759.667,743.7,30,-1.993186,0.000000,-28.7662,0.000000,1.000000,-4.695845,-142.857,
37.2167,0.866482,0.000000,769.333,753.44,30,-2.071861,0.000000,-30.9917,0.000000,1.000000,-4.896457,-148.96,
37.7,0.861463,0.000000,779,763.17,30,-2.148336,0.000000,-33.1906,0.000000,1.000000,-5.093058,-154.941,
38.1833,0.856881,0.000000,788.667,772.91,30,-2.224130,0.000000,-35.4008,0.000000,1.000000,-5.289199,-160.908,
38.6667,0.852299,0.000000,798.333,782.64,30,-2.298606,0.000000,-37.6069,0.000000,1.000000,-5.483367,-166.815,
39.15,0.847716,0.000000,808,792.37,30,-2.373303,0.000000,-39.8479,0.000000,1.000000,-5.679180,-172.772,
39.6333,0.842261,0.000000,817.667,802.1,30,-2.447146,0.000000,-42.0974,0.000000,1.000000,-5.874071,-178.701,
40.1167,0.838988,0.000000,827.333,811.82,30,-2.519195,0.000000,-44.3314,0.000000,1.000000,-6.065742,-184.532,
40.6,0.832660,0.000000,837,821.54,30,-2.589799,0.000000,-46.5591,0.000000,1.000000,-6.254980,-190.289,
41.0833,0.828296,0.000000,846.667,831.25,30,-2.659605,0.000000,-48.797,0.000000,1.000000,-6.443298,-196.018,
41.5667,0.822841,0.000000,856.333,840.97,30,-2.726384,0.000000,-50.9879,0.000000,1.000000,-6.625271,-201.554,
42.05,0.815641,0.000000,866,850.68,30,-2.787097,0.000000,-53.0505,0.000000,1.000000,-6.793406,-206.669,
42.5333,0.810404,0.000000,875.667,860.38,30,-2.835588,0.000000,-54.8191,0.000000,1.000000,-6.932483,-210.9,
43.0167,0.803203,0.000000,885.333,870.08,30,-2.867442,0.000000,-56.1706,0.000000,1.000000,-7.031425,-213.91,
43.5,0.795566,0.000000,895,879.76,30,-2.877009,0.000000,-56.9437,0.000000,1.000000,-7.075899,-215.263,
43.9833,0.792511,0.000000,900,889.39,10,-2.861171,0.000000,-57.0406,0.000000,1.000000,-7.057656,-214.708,
44.4667,0.792075,0.000000,900,895.52,10.2,-2.951540,0.000000,-59.8317,0.000000,1.000000,-7.293866,-221.894,
44.7542,0.786620,0.000000,900,897.94,10.2,-2.946019,0.000000,-59.82,0.000000,1.000000,-7.285517,-221.64,